IESNA:LM-63-2002
[TEST] 1
[TESTLAB] AOK
[TESTDATE] 2019-06-19
[ISSUEDATE] 2019-06-20 14:35:27
[NEARFIELD] 
[LAMPPOSITION] 0,0
[OTHER] EVERFINE GO-2000A_V1 SYSTEM
[MANUFAC] AOK
[LUMCAT] A
[LUMINAIRE] AOK-150WIP-NV-L3-00-5070-T401-P
[LAMPCAT] B
[LAMP] 3030
[BALLAST] E
[BALLASTCAT] F
[OTHER] 
[OTHER] Gamma(deg)    Fz(lm)      Ft(lm)     %Lum    %Lamp
[OTHER]   0- 10       431.71      431.71     2.61     2.61
[OTHER]  10- 20      1228.81     1660.52    10.03    10.03
[OTHER]  20- 30      1890.95     3551.48    21.44    21.44
[OTHER]  30- 40      2461.50     6012.98    36.31    36.31
[OTHER]  40- 50      2920.32     8933.30    53.94    53.94
[OTHER]  50- 60      3324.17    12257.47    74.01    74.01
[OTHER]  60- 70      3068.88    15326.35    92.54    92.54
[OTHER]  70- 80      1114.08    16440.43    99.27    99.27
[OTHER]  80- 90        70.26    16510.69    99.69    99.69
[OTHER]  90-100         4.05    16514.74    99.72    99.72
[OTHER] 100-110         5.40    16520.14    99.75    99.75
[OTHER] 110-120         7.69    16527.84    99.80    99.80
[OTHER] 120-130         8.53    16536.37    99.85    99.85
[OTHER] 130-140         8.08    16544.45    99.90    99.90
[OTHER] 140-150         6.89    16551.34    99.94    99.94
[OTHER] 150-160         5.43    16556.77    99.97    99.97
[OTHER] 160-170         3.56    16560.33    99.99    99.99
[OTHER] 170-180         1.25    16561.58   100.00   100.00
[OTHER] 
TILT=NONE
1 16562 1 181 25 1 2 -0.409 -0.409 0.000
1.000 1 149.828
0.0    1.0    2.0    3.0    4.0    5.0    6.0    7.0    8.0    9.0    
 10.0   11.0   12.0   13.0   14.0   15.0   16.0   17.0   18.0   19.0   
 20.0   21.0   22.0   23.0   24.0   25.0   26.0   27.0   28.0   29.0   
 30.0   31.0   32.0   33.0   34.0   35.0   36.0   37.0   38.0   39.0   
 40.0   41.0   42.0   43.0   44.0   45.0   46.0   47.0   48.0   49.0   
 50.0   51.0   52.0   53.0   54.0   55.0   56.0   57.0   58.0   59.0   
 60.0   61.0   62.0   63.0   64.0   65.0   66.0   67.0   68.0   69.0   
 70.0   71.0   72.0   73.0   74.0   75.0   76.0   77.0   78.0   79.0   
 80.0   81.0   82.0   83.0   84.0   85.0   86.0   87.0   88.0   89.0   
 90.0   91.0   92.0   93.0   94.0   95.0   96.0   97.0   98.0   99.0   
 100.0  101.0  102.0  103.0  104.0  105.0  106.0  107.0  108.0  109.0  
 110.0  111.0  112.0  113.0  114.0  115.0  116.0  117.0  118.0  119.0  
 120.0  121.0  122.0  123.0  124.0  125.0  126.0  127.0  128.0  129.0  
 130.0  131.0  132.0  133.0  134.0  135.0  136.0  137.0  138.0  139.0  
 140.0  141.0  142.0  143.0  144.0  145.0  146.0  147.0  148.0  149.0  
 150.0  151.0  152.0  153.0  154.0  155.0  156.0  157.0  158.0  159.0  
 160.0  161.0  162.0  163.0  164.0  165.0  166.0  167.0  168.0  169.0  
 170.0  171.0  172.0  173.0  174.0  175.0  176.0  177.0  178.0  179.0  
 180.0  
0.0    15.0   30.0   45.0   60.0   75.0   90.0   105.0  120.0  135.0  
 150.0  165.0  180.0  195.0  210.0  225.0  240.0  255.0  270.0  285.0  
 300.0  315.0  330.0  345.0  360.0  
4569.17  4650.04  4727.69  4798.07  4866.76  4932.44  4993.85  5052.81  5109.72  5161.79  
 5208.99  5251.31  5290.35  5326.55  5358.70  5386.78  5410.33  5429.88  5445.37  5456.80  
 5464.97  5468.68  5468.32  5464.70  5459.83  5454.96  5452.49  5453.27  5456.49  5460.54  
 5463.00  5462.63  5460.21  5456.97  5451.71  5446.83  5442.36  5440.70  5442.29  5449.13  
 5460.05  5474.24  5492.07  5514.37  5539.93  5571.56  5609.69  5649.49  5690.93  5735.19  
 5784.58  5831.34  5876.47  5913.15  5942.49  5962.51  5963.14  5937.42  5884.48  5799.89  
 5685.60  5530.80  5318.99  5015.35  4626.28  4147.02  3577.54  2894.51  2171.22  1513.00  
 1198.48  887.63   576.79   490.78   438.68   391.46   341.58   290.66   248.56   210.28   
 175.42   144.53   119.50   94.53    69.56    53.38    40.47    29.35    20.50    13.34    
 5.64     1.98     1.73     1.65     1.63     1.62     1.71     1.81     1.86     1.91     
 1.98     2.05     2.13     2.20     2.26     2.32     2.39     2.46     2.54     2.61     
 2.69     2.77     2.84     2.92     2.99     3.06     3.14     3.20     3.27     3.34     
 3.41     3.47     3.53     3.60     3.67     3.73     3.79     3.86     3.92     3.99     
 4.06     4.13     4.20     4.27     4.35     4.42     4.51     4.59     4.68     4.78     
 4.87     4.98     5.09     5.21     5.35     5.48     5.62     5.78     5.92     6.09     
 6.26     6.43     6.65     7.04     7.24     7.43     7.64     7.86     8.08     8.32     
 8.56     8.80     9.04     9.27     9.51     9.74     9.97     10.20    10.43    10.67    
 10.91    11.13    11.35    11.55    11.72    11.89    12.07    12.23    12.42    12.60    
 12.94    
4569.17  4650.03  4727.19  4803.06  4874.41  4945.31  5011.24  5073.85  5133.42  5191.88  
 5245.76  5293.86  5339.06  5381.34  5419.89  5454.71  5486.61  5514.36  5537.56  5556.97  
 5572.29  5583.04  5590.06  5592.94  5592.92  5590.44  5588.38  5587.99  5590.50  5595.09  
 5602.12  5608.73  5612.04  5614.52  5616.17  5616.16  5615.33  5614.93  5615.76  5616.63  
 5621.63  5628.68  5638.67  5652.40  5671.08  5692.26  5715.94  5742.95  5774.92  5809.77  
 5845.48  5884.07  5924.28  5961.08  5994.23  6023.65  6048.06  6064.51  6063.09  6042.06  
 5989.04  5899.04  5767.06  5586.39  5342.13  5020.47  4624.87  4144.66  3586.02  2899.82  
 2214.04  1576.92  1074.77  774.88   589.69   476.18   402.85   347.07   298.17   256.12   
 214.12   177.34   145.12   116.71   91.71    70.35    53.44    39.20    27.95    19.06    
 11.86    4.26     2.66     2.03     1.71     1.55     1.49     1.49     1.51     1.57     
 1.64     1.71     1.78     1.86     1.94     2.04     2.18     2.29     2.38     2.45     
 2.53     2.62     2.72     2.79     2.86     2.93     3.01     3.09     3.16     3.24     
 3.31     3.39     3.47     3.54     3.60     3.67     3.74     3.82     3.89     3.96     
 4.04     4.12     4.19     4.27     4.35     4.43     4.52     4.61     4.70     4.80     
 4.91     5.02     5.14     5.27     5.41     5.57     5.70     5.87     6.03     6.21     
 6.38     6.56     6.75     7.19     7.37     7.58     7.78     7.99     8.21     8.44     
 8.66     8.88     9.10     9.31     9.52     9.74     9.93     10.15    10.37    10.59    
 10.81    11.03    11.22    11.40    11.56    11.71    11.84    11.98    12.15    12.31    
 12.94    
4569.17  4643.71  4715.71  4785.61  4855.89  4922.67  4985.44  5046.08  5106.69  5165.22  
 5219.98  5273.45  5323.16  5370.33  5414.14  5455.42  5491.57  5525.27  5556.87  5585.11  
 5608.74  5629.81  5647.95  5662.30  5672.86  5679.64  5684.71  5687.67  5688.95  5690.21  
 5693.55  5697.75  5703.63  5707.02  5710.39  5712.51  5712.53  5711.28  5710.44  5710.84  
 5714.59  5720.87  5727.60  5735.58  5744.00  5754.08  5764.60  5774.71  5786.89  5804.10  
 5825.88  5853.17  5885.93  5921.67  5959.12  5996.16  6034.03  6067.75  6096.85  6122.56  
 6135.32  6126.31  6087.95  6012.64  5905.69  5759.68  5560.36  5301.75  4998.76  4639.08  
 4246.29  3807.34  3330.45  2799.10  2235.47  1719.68  1276.43  957.72   640.46   451.71   
 314.79   224.84   164.22   134.06   104.21   74.36    54.47    38.98    28.09    20.35    
 14.23    6.63     4.41     2.78     2.07     1.81     1.65     1.52     1.48     1.49     
 1.54     1.61     1.68     1.75     1.83     1.90     1.98     2.05     2.13     2.21     
 2.30     2.39     2.51     2.65     2.77     2.87     2.96     3.05     3.15     3.24     
 3.34     3.43     3.53     3.62     3.73     3.81     3.91     4.01     4.11     4.21     
 4.32     4.43     4.54     4.66     4.79     4.91     5.03     5.17     5.30     5.44     
 5.57     5.71     5.86     6.02     6.18     6.34     6.50     6.67     6.83     7.00     
 7.17     7.34     7.61     8.06     8.25     8.43     8.63     8.81     9.02     9.21     
 9.40     9.60     9.79     9.98     10.17    10.36    10.55    10.76    10.96    11.17    
 11.38    11.57    11.74    11.91    12.05    12.18    12.31    12.46    12.65    12.84    
 12.94    
4569.17  4631.48  4689.59  4747.69  4804.54  4863.06  4919.87  4974.56  5027.02  5080.03  
 5132.18  5181.36  5228.86  5275.51  5321.30  5364.96  5405.65  5442.96  5478.97  5511.11  
 5541.62  5569.16  5592.91  5615.37  5635.72  5655.20  5671.75  5688.70  5703.94  5716.23  
 5727.64  5737.38  5744.57  5749.24  5755.18  5760.27  5765.80  5773.00  5779.79  5786.12  
 5789.90  5789.46  5786.04  5780.09  5772.48  5767.85  5767.46  5770.89  5778.12  5787.45  
 5796.84  5812.61  5836.00  5866.48  5899.12  5929.15  5948.59  5959.55  5963.31  5959.51  
 5958.15  5947.56  5937.98  5946.46  5954.80  5947.02  5919.20  5860.22  5746.20  5590.55  
 5386.80  5116.51  4788.21  4413.91  3974.11  3452.90  2919.16  2385.42  1853.69  1342.78  
 838.51   485.33   316.93   149.53   89.64    58.02    39.99    29.03    21.33    16.28    
 10.73    6.76     4.92     3.50     2.65     2.18     1.82     1.47     1.36     1.41     
 1.46     1.53     1.59     1.66     1.74     1.82     1.90     1.98     2.08     2.17     
 2.26     2.37     2.48     2.59     2.69     2.81     2.94     3.07     3.20     3.35     
 3.50     3.65     3.77     3.90     4.03     4.16     4.30     4.46     4.61     4.76     
 4.93     5.08     5.24     5.41     5.58     5.74     5.89     6.05     6.20     6.33     
 6.47     6.62     6.76     6.91     7.07     7.23     7.39     7.61     7.76     7.90     
 8.05     8.22     8.46     8.93     9.07     9.21     9.37     9.53     9.70     9.87     
 10.03    10.19    10.37    10.56    10.75    10.94    11.12    11.30    11.47    11.68    
 11.88    12.06    12.23    12.40    12.55    12.68    12.81    12.95    13.13    13.29    
 12.94    
4569.17  4612.11  4652.95  4693.34  4734.14  4774.42  4816.49  4858.15  4898.97  4940.62  
 4982.28  5022.68  5062.23  5100.92  5140.87  5179.99  5216.47  5250.51  5285.36  5318.54  
 5350.44  5382.74  5413.37  5442.30  5469.52  5495.89  5520.98  5545.58  5567.71  5590.66  
 5611.51  5632.76  5653.18  5671.90  5684.30  5691.59  5693.34  5695.47  5702.62  5711.53  
 5722.13  5733.18  5745.91  5758.67  5773.10  5791.76  5812.57  5836.34  5863.09  5891.56  
 5920.38  5950.13  5975.26  5997.41  6015.31  6023.50  6028.64  6047.19  6040.66  6009.47  
 6023.87  6045.00  6065.42  6066.93  6009.83  5907.90  5780.66  5619.09  5420.97  5206.04  
 4931.21  4500.51  4000.10  3366.68  2715.61  2113.48  1535.90  1163.65  793.83   424.00   
 262.07   157.89   112.30   67.32    49.89    38.67    29.78    21.91    15.78    10.36    
 6.58     5.15     4.43     3.86     2.99     2.20     1.56     1.42     1.51     1.63     
 1.76     1.90     2.03     2.18     2.34     2.50     2.66     2.83     3.00     3.18     
 3.36     3.54     3.71     3.90     4.08     4.25     4.44     4.61     4.78     4.95     
 5.12     5.28     5.44     5.60     5.75     5.89     6.03     6.17     6.32     6.45     
 6.59     6.72     6.86     7.00     7.13     7.26     7.38     7.50     7.62     7.72     
 7.83     7.93     8.03     8.16     8.27     8.39     8.51     8.62     8.72     8.84     
 8.96     9.14     9.49     9.89     9.99     10.10    10.21    10.35    10.49    10.64    
 10.79    10.95    11.11    11.27    11.44    11.60    11.76    11.91    12.06    12.21    
 12.33    12.48    12.63    12.74    12.83    12.89    12.96    13.05    13.16    13.28    
 12.94    
4569.17  4590.52  4609.75  4628.56  4647.80  4668.32  4689.26  4710.22  4731.97  4756.34  
 4781.12  4805.06  4829.86  4855.95  4883.70  4908.93  4935.85  4961.50  4988.41  5013.56  
 5038.35  5063.57  5089.21  5115.28  5140.49  5165.29  5191.37  5218.30  5245.23  5272.59  
 5301.13  5327.61  5350.64  5368.54  5379.17  5383.42  5384.69  5384.73  5389.93  5402.80  
 5420.37  5442.54  5466.50  5493.90  5527.28  5565.34  5605.96  5649.12  5690.94  5726.39  
 5759.36  5798.71  5840.98  5878.49  5916.33  5928.23  5932.59  5946.76  5969.29  5977.68  
 5967.85  5911.69  5791.45  5656.63  5502.02  5305.07  5062.06  4787.36  4473.14  4097.35  
 3609.71  3075.88  2542.05  2008.93  1549.77  1139.68  799.68   551.34   420.56   289.78   
 159.68   109.48   79.41    61.69    49.87    41.17    33.26    26.25    19.56    12.93    
 9.75     7.68     6.28     4.68     3.18     2.25     2.25     2.46     2.70     2.94     
 3.19     3.45     3.70     3.96     4.24     4.51     4.78     5.06     5.33     5.57     
 5.81     6.03     6.26     6.48     6.68     6.89     7.09     7.28     7.45     7.62     
 7.77     7.92     8.05     8.17     8.29     8.40     8.50     8.61     8.72     8.84     
 8.94     9.05     9.16     9.28     9.41     9.54     9.63     9.70     9.77     9.85     
 9.89     9.95     10.02    10.10    10.15    10.23    10.31    10.40    10.45    10.53    
 10.61    10.75    11.07    11.70    11.75    11.79    11.84    11.88    11.95    12.03    
 12.12    12.20    12.29    12.38    12.48    12.59    12.69    12.79    12.89    12.99    
 13.08    13.11    13.16    13.21    13.24    13.24    13.25    13.28    13.34    13.41    
 12.94    
4569.17  4568.36  4566.75  4565.54  4563.95  4563.15  4562.75  4562.35  4562.77  4564.78  
 4567.20  4569.61  4572.85  4578.07  4582.49  4586.91  4592.15  4598.17  4604.20  4610.21  
 4616.26  4623.89  4631.93  4640.37  4648.82  4658.06  4667.32  4678.18  4690.23  4702.27  
 4713.08  4723.11  4731.09  4733.84  4731.38  4724.12  4714.51  4708.16  4708.23  4714.33  
 4726.02  4740.88  4759.39  4780.71  4803.61  4826.82  4841.14  4843.21  4850.65  4875.60  
 4904.05  4926.13  4946.17  4962.33  4952.60  4935.02  4926.65  4923.84  4920.62  4881.33  
 4780.89  4647.54  4517.94  4369.50  4175.09  3933.69  3660.14  3354.80  3014.33  2659.98  
 2305.27  1920.86  1574.78  1230.32  924.58   667.58   443.81   343.93   244.05   144.80   
 102.17   75.17    57.73    47.15    39.25    32.29    25.07    18.65    13.17    9.68     
 8.33     7.13     5.21     3.06     2.33     2.53     2.85     3.14     3.45     3.76     
 4.09     4.54     4.96     5.33     5.68     5.99     6.26     6.56     6.85     7.16     
 7.48     7.80     8.12     8.43     8.70     8.99     9.28     9.54     9.77     9.99     
 10.18    10.40    10.60    10.76    10.89    11.03    11.16    11.26    11.37    11.51    
 11.62    11.69    11.76    11.82    11.86    11.89    11.94    11.97    12.00    12.05    
 12.08    12.11    12.14    12.20    12.24    12.27    12.28    12.28    12.28    12.29    
 12.29    12.29    12.31    12.33    12.38    12.40    12.34    12.38    12.44    12.51    
 12.56    12.61    12.66    12.71    12.76    12.82    12.88    12.94    13.00    13.06    
 13.12    13.12    13.16    13.17    13.17    13.18    13.18    13.18    13.18    13.19    
 12.94    
4569.17  4547.06  4524.94  4502.82  4480.30  4456.65  4433.72  4410.79  4389.47  4368.15  
 4346.44  4325.12  4304.21  4282.50  4261.58  4240.66  4220.61  4202.09  4182.80  4163.89  
 4144.59  4126.48  4109.58  4093.09  4075.80  4060.11  4044.42  4028.38  4012.30  3995.81  
 3979.72  3963.64  3945.16  3923.07  3900.16  3880.42  3862.31  3845.81  3829.37  3812.08  
 3796.78  3782.70  3768.62  3754.55  3739.27  3723.19  3703.92  3680.62  3645.33  3615.13  
 3586.24  3549.72  3509.54  3477.69  3441.94  3390.60  3333.94  3273.64  3206.94  3133.00  
 3041.84  2920.14  2795.50  2676.81  2533.47  2334.51  2131.05  1913.61  1661.74  1412.78  
 1178.21  971.92   765.84   579.07   431.01   316.78   233.41   173.02   131.51   105.98   
 80.59    63.58    50.60    41.35    34.51    27.97    21.83    16.53    11.65    9.23     
 7.89     6.32     5.02     4.19     3.62     3.68     4.02     4.36     4.71     5.10     
 5.54     6.00     6.45     6.87     7.28     7.71     8.12     8.50     8.89     9.29     
 9.62     9.99     10.33    10.64    10.96    11.25    11.52    11.77    12.04    12.26    
 12.44    12.60    12.79    12.93    13.04    13.15    13.23    13.29    13.31    13.34    
 13.38    13.42    13.42    13.42    13.41    13.41    13.41    13.41    13.41    13.41    
 13.40    13.39    13.39    13.36    13.35    13.33    13.30    13.28    13.28    13.29    
 13.29    13.28    13.27    13.27    13.27    13.27    13.27    13.27    13.27    13.27    
 13.26    13.26    13.25    13.25    13.24    13.24    13.21    13.19    13.16    13.15    
 13.15    13.12    13.12    13.09    13.05    12.97    12.90    12.83    12.77    12.73    
 12.94    
4569.17  4528.55  4488.30  4444.45  4399.81  4355.18  4311.31  4265.46  4219.32  4171.86  
 4124.00  4076.12  4026.23  3974.34  3921.25  3868.16  3815.06  3760.78  3707.68  3653.12  
 3597.21  3541.32  3486.61  3429.88  3371.60  3316.10  3260.56  3202.22  3141.91  3082.80  
 3024.26  2967.13  2908.02  2849.67  2788.93  2726.58  2663.44  2600.27  2537.13  2475.58  
 2409.48  2341.15  2275.35  2211.35  2147.02  2083.20  2019.66  1954.35  1884.40  1812.47  
 1736.12  1652.24  1560.75  1469.44  1374.89  1278.50  1180.80  1082.12  979.90   882.41   
 793.67   717.73   656.71   608.89   570.35   537.53   504.74   471.41   438.49   405.05   
 369.87   336.71   304.80   272.31   239.30   206.31   176.48   150.37   127.19   105.23   
 85.13    68.43    55.60    44.73    36.36    29.73    24.36    19.36    13.96    9.88     
 7.69     5.88     5.12     4.93     4.66     4.36     4.53     4.90     5.30     5.71     
 6.12     6.54     7.00     7.41     7.81     8.21     8.57     8.94     9.33     9.72     
 10.11    10.51    10.90    11.23    11.58    11.96    12.25    12.53    12.82    13.10    
 13.30    13.46    13.60    13.73    13.83    13.94    14.02    14.11    14.18    14.22    
 14.23    14.24    14.25    14.26    14.25    14.24    14.23    14.22    14.19    14.17    
 14.16    14.15    14.15    14.15    14.13    14.09    14.05    14.02    14.00    13.98    
 13.98    13.98    13.98    13.98    13.98    13.99    13.99    13.99    13.99    14.00    
 14.00    14.00    14.00    14.01    14.01    14.01    14.01    14.01    14.00    13.98    
 13.94    13.89    13.84    13.79    13.73    13.65    13.59    13.51    13.44    13.36    
 12.94    
4569.17  4511.91  4452.66  4392.58  4329.70  4264.17  4196.45  4127.51  4057.36  3984.00  
 3908.61  3832.01  3752.59  3669.96  3581.69  3492.99  3404.12  3314.61  3222.69  3125.96  
 3028.79  2935.21  2842.06  2746.51  2648.15  2549.76  2452.17  2354.45  2254.87  2157.67  
 2070.88  1994.97  1928.36  1868.62  1818.14  1771.73  1726.96  1682.20  1641.16  1601.63  
 1562.51  1520.20  1475.06  1428.70  1379.93  1325.94  1268.71  1210.25  1150.70  1091.14  
 1032.38  977.69   932.96   897.37   869.81   846.59   826.29   807.70   791.31   775.08   
 756.34   737.25   716.64   692.97   665.01   631.03   594.75   556.95   517.46   479.55   
 444.19   410.58   377.50   340.46   302.83   267.98   232.56   197.31   162.57   130.21   
 103.55   76.93    54.85    39.91    29.41    23.11    17.72    13.82    10.34    6.87     
 5.26     4.65     4.42     4.41     4.42     4.42     4.61     5.02     5.44     5.87     
 6.31     6.71     7.11     7.52     7.93     8.32     8.70     9.07     9.44     9.82     
 10.22    10.57    10.92    11.26    11.57    11.90    12.17    12.43    12.71    12.98    
 13.21    13.41    13.56    13.71    13.83    13.96    14.09    14.20    14.29    14.37    
 14.43    14.48    14.54    14.58    14.61    14.62    14.63    14.64    14.66    14.66    
 14.65    14.64    14.59    14.57    14.56    14.56    14.55    14.54    14.53    14.52    
 14.52    14.50    14.47    14.45    14.44    14.44    14.44    14.44    14.44    14.44    
 14.44    14.44    14.44    14.43    14.43    14.43    14.43    14.39    14.36    14.32    
 14.29    14.21    14.14    14.04    13.93    13.84    13.74    13.62    13.51    13.39    
 12.94    
4569.17  4500.23  4429.27  4355.45  4276.43  4195.03  4113.95  4027.23  3934.74  3837.97  
 3736.82  3636.41  3530.78  3421.10  3306.22  3189.72  3071.20  2949.50  2829.36  2705.99  
 2582.61  2459.25  2337.57  2221.96  2120.72  2037.42  1970.52  1914.70  1867.90  1826.33  
 1787.84  1752.07  1718.97  1686.04  1653.97  1621.27  1586.22  1548.19  1508.21  1466.80  
